File: packages/exspy/exspy-0.3.2.tar.gz/exspy-0.3.2/examples/model_fitting/lowloss_spectrum.msa
#FORMAT      : EMSA/MAS Spectral Data File
#VERSION     : 1.0
#TITLE       :
#DATE        : 04-SEP-2012
#TIME        : 23:14
#OWNER       :
#NPOINTS     : 2048.00
#NCOLUMNS    : 1.00000
#XUNITS      : eV
#YUNITS      : Counts
#DATATYPE    : Y
#XPERCHAN    : 0.200000
#OFFSET      : -40.0000
#SIGNALTYPE  : ELS
#SPECTRUM    :
35
40
33
22
28
12
43
24
4
45
29
52
60
46
45
59
67
74
79
74
93
106
145
195
231
330
764
3650
18548
42855
30222
8158
1879
1069
898
819
901
1047
1226
1453
1230
1125
1047
1096
1048
1142
1193
1319
1475
1720
2023
2310
2281
1965
1765
1605
1306
1221
1159
1011
1065
864
827
763
750
698
682
763
801
781
690
709
639
654
651
554
624
608
515
478
459
468
476
396
387
391
348
381
342
341
277
341
283
304
260
237
258
258
219
215
197
228
214
226
181
249
171
191
160
184
211
175
240
235
261
270
280
296
255
246
231
221
228
214
209
182
204
214
195
184
161
157
143
141
149
149
114
113
125
129
118
129
103
120
122
122
115
71
81
84
64
80
75
72
72
65
72
65
51
81
42
90
54
39
45
49
35
53
50
75
60
56
45
30
42
56
56
47
47
49
37
18
44
59
35
45
31
28
26
29
41
19
33
26
32
30
17
45
23
9
17
25
20
25
31
19
47
38
54
34
11
29
30
-1
34
40
-5
24
10
9
37
21
8
-2
18
20
26
6
31
35
2
27
22
-6
15
25
16
22
18
44
37
24
16
25
22
17
25
0
15
12
17
8
17
31
-5
20
18
17
6
20
17
11
27
37
14
21
4
13
21
14
14
27
16
5
-2
-2
28
6
15
5
9
9
10
10
25
26
30
1
2
21
7
18
28
17
#ENDOFDATA   :